[SAMPLE]
{
Sample	1
Well	2:9
FileName	Carreira - RG-B-027d_15'152985-1_20201127
SampleID	Carreira - RG-B-027d_15'152985-1_20201127
SampleDescription	RG-B-027d_15'
Date	27-Nov-2020
Time	16:01:50
JobCode	Carreira - RG-B-027d_15'152985
TaskCode
UserName	Carreira - xxx
LabName
Instrument	ACQ-SQD2#LCA574
Conditions
Submitter	Carreira - xxx
SampleType	0
Plate	01TL,XY,SD,1: 6,2: 8,3:140.0,4:140.0,5:  0.0,6:  0.0,7:O,8:O,9:1280.0,10:860.0,11:320.0,12:120.0,13:150.0,14: 83.0
QCBatchName	C:\MassLynx\OALogin\BatchDB\SQ01_QC_2018_271.rpt
QCFileName	SQ01_QC_2018_271
QCDate	11/03/2019
QCTime	06:07:36
QCStatus	Fail
QCReason1
QCReason2	Intensity
Method	E:\Masslynx Projects\MoBiAS open access.PRO\MethDB\High_Mass_PosNeg LC_Fast_Splitter_OFF.olp
Process	C:\MassLynx\OpenLynx.exe
MSTune	Instrument_OA_settings_15Dec2017
MSMethod	FAST_HighMass_From500o3072Da_PosNeg
InletMethod	FAST_ACN_H2O_FullRange_Splitter_OFF_NEU
PreRunMethod
PostRunMethod
SwitchMethod	Switch_ACN_H2O_FullRange_and_Polar
FractionMethod
AcquisitionProcess
AcquisitionProcessParameters
AcquisitionProcessOptions
InjectionVolume	2.0000
ReportScheme	E:\Masslynx Projects\MoBiAS open access.PRO\MoBiAS_Report_Settings_Standard_Report.ors
SampleReportEnable	1
SampleReportFormat	E:\Masslynx Projects\MoBiAS open access.PRO\MoBiAS_Report_Settings_Standard_Report.ors
AnalysisTime	3.5000
ColumnName	 ACQUITY UPLC® BEH C18 1.7µm
Spare1
Spare2
Spare3
Spare4
Spare5
[COMPOUND]
{
;Mono Mass		Formula
1532.0000	
}
[FRACTIONRESULTS]
{
}
[FRACTION]
{
}
[FUNCTION]
{
Function	1
IonMode	ES+ 
Type	MS 
Description	(500:3072) 
[SPECTRUM]
{
ProcDesc	Center (Top,4, Ar); Smooth (Mn, 2x0.75); Subtract (1,40.00 ,0.010); Combine (42:47-(21:28+71:78))
State	Diversity fail
Peak ID	1
Peak Ref	36
Time	0.3233
TIC	175187
BPI	25295
BPM	580.0204
Continuum	FALSE
Saved	FALSE
[MASSES]
{
;Mass	Exp. Mass	Obs. Mass	% BPI	Int. Abs	Adducted Formula
1532.0000	1555.0000	0.0000	0.00	0.00	
1532.0000	1533.0000	0.0000	0.00	0.00	
}
[RESULTS]
{
;Mass	Found	% BPI	% Purity	Confirmed	Status
1532.0000	0	0.00	0.00	0	
}
[MS]
{
;Mass	% BPI
529.02	44.066
555.84	59.188
578.41	90.532
580.02	100.000
587.29	63.757
606.52	62.680
611.34	84.978
706.26	75.996
742.72	64.771
836.10	46.594
}
}
[SPECTRUM]
{
ProcDesc	Center (Top,4, Ar); Smooth (Mn, 2x0.75); Subtract (1,40.00 ,0.010); Combine (227:233-(207:213+249:256))
State	Diversity fail
Peak ID	2
Peak Ref	41
Time	1.6833
TIC	18344398
BPI	4465359
BPM	548.5728
Continuum	FALSE
Saved	FALSE
[MASSES]
{
;Mass	Exp. Mass	Obs. Mass	% BPI	Int. Abs	Adducted Formula
1532.0000	1555.0000	0.0000	0.00	0.00	
1532.0000	1533.0000	0.0000	0.00	0.00	
}
[RESULTS]
{
;Mass	Found	% BPI	% Purity	Confirmed	Status
1532.0000	0	0.00	0.00	0	
}
[MS]
{
;Mass	% BPI
528.51	10.633
536.80	87.478
537.51	38.863
548.57	100.000
549.86	56.207
550.50	74.149
555.58	15.813
556.35	9.527
606.32	10.394
846.26	7.753
}
}
[SPECTRUM]
{
ProcDesc	Center (Top,4, Ar); Smooth (Mn, 2x0.75); Subtract (1,40.00 ,0.010); Combine (235:241-(212:218+255:261))
State	Diversity fail
Peak ID	3
Peak Ref	1
Time	1.7407
TIC	129671944
BPI	37274392
BPM	909.8025
Continuum	FALSE
Saved	FALSE
[MASSES]
{
;Mass	Exp. Mass	Obs. Mass	% BPI	Int. Abs	Adducted Formula
1532.0000	1555.0000	0.0000	0.00	0.00	
1532.0000	1533.0000	0.0000	0.00	0.00	
}
[RESULTS]
{
;Mass	Found	% BPI	% Purity	Confirmed	Status
1532.0000	0	0.00	0.00	0	
}
[MS]
{
;Mass	% BPI
548.89	76.612
562.53	51.456
596.03	20.986
909.80	100.000
910.64	46.724
911.80	14.515
1096.63	14.108
1097.53	5.928
1123.77	11.396
1124.35	6.159
}
}
[SPECTRUM]
{
ProcDesc	Center (Top,4, Ar); Smooth (Mn, 2x0.75); Subtract (1,40.00 ,0.010); Combine (240:245-(219:226+259:266))
State	Diversity fail
Peak ID	4
Peak Ref	42
Time	1.7733
TIC	139970352
BPI	72039936
BPM	553.4604
Continuum	FALSE
Saved	FALSE
[MASSES]
{
;Mass	Exp. Mass	Obs. Mass	% BPI	Int. Abs	Adducted Formula
1532.0000	1555.0000	0.0000	0.00	0.00	
1532.0000	1533.0000	0.0000	0.00	0.00	
}
[RESULTS]
{
;Mass	Found	% BPI	% Purity	Confirmed	Status
1532.0000	0	0.00	0.00	0	
}
[MS]
{
;Mass	% BPI
527.61	5.452
535.39	10.128
539.89	4.833
545.36	8.686
553.46	100.000
595.97	38.258
607.67	6.666
801.63	5.867
909.61	9.508
1190.59	4.897
}
}
[SPECTRUM]
{
ProcDesc	Center (Top,4, Ar); Smooth (Mn, 2x0.75); Subtract (1,40.00 ,0.010); Combine (254:260-(235:241+273:279))
State	Diversity fail
Peak ID	6
Peak Ref	3
Time	1.8800
TIC	56196088
BPI	11328063
BPM	589.4741
Continuum	FALSE
Saved	FALSE
[MASSES]
{
;Mass	Exp. Mass	Obs. Mass	% BPI	Int. Abs	Adducted Formula
1532.0000	1555.0000	0.0000	0.00	0.00	
1532.0000	1533.0000	0.0000	0.00	0.00	
}
[RESULTS]
{
;Mass	Found	% BPI	% Purity	Confirmed	Status
1532.0000	0	0.00	0.00	0	
}
[MS]
{
;Mass	% BPI
564.65	30.990
575.45	47.006
589.47	100.000
607.74	83.253
615.46	31.624
747.42	40.831
748.06	30.961
775.84	50.524
848.32	49.942
849.09	30.949
}
}
[SPECTRUM]
{
ProcDesc	Center (Top,4, Ar); Smooth (Mn, 2x0.75); Subtract (1,40.00 ,0.010); Combine (261:267-(239:245+284:290))
State	Diversity fail
Peak ID	7
Peak Ref	4
Time	1.9313
TIC	76853656
BPI	39126856
BPM	576.9337
Continuum	FALSE
Saved	FALSE
[MASSES]
{
;Mass	Exp. Mass	Obs. Mass	% BPI	Int. Abs	Adducted Formula
1532.0000	1555.0000	0.0000	0.00	0.00	
1532.0000	1533.0000	0.0000	0.00	0.00	
}
[RESULTS]
{
;Mass	Found	% BPI	% Purity	Confirmed	Status
1532.0000	0	0.00	0.00	0	
}
[MS]
{
;Mass	% BPI
559.96	5.935
576.93	100.000
589.41	9.642
636.16	4.212
675.46	4.303
838.61	4.637
848.32	21.905
849.35	9.540
1152.71	32.473
1154.64	3.774
}
}
[SPECTRUM]
{
ProcDesc	Center (Top,4, Ar); Smooth (Mn, 2x0.75); Subtract (1,40.00 ,0.010); Combine (268:274-(250:256+288:294))
State	Diversity fail
Peak ID	8
Peak Ref	5
Time	1.9826
TIC	18168626
BPI	7329155
BPM	525.6783
Continuum	FALSE
Saved	FALSE
[MASSES]
{
;Mass	Exp. Mass	Obs. Mass	% BPI	Int. Abs	Adducted Formula
1532.0000	1555.0000	0.0000	0.00	0.00	
1532.0000	1533.0000	0.0000	0.00	0.00	
}
[RESULTS]
{
;Mass	Found	% BPI	% Purity	Confirmed	Status
1532.0000	0	0.00	0.00	0	
}
[MS]
{
;Mass	% BPI
525.68	100.000
604.33	9.811
681.44	8.650
682.34	13.191
848.39	48.164
892.82	9.739
961.96	17.628
1050.58	12.679
1051.74	13.008
1152.58	15.025
}
}
[SPECTRUM]
{
ProcDesc	Center (Top,4, Ar); Smooth (Mn, 2x0.75); Subtract (1,40.00 ,0.010); Combine (277:283-(254:260+298:304))
State	Diversity fail
Peak ID	9
Peak Ref	16
Time	2.0486
TIC	250050096
BPI	103732872
BPM	890.7665
Continuum	FALSE
Saved	FALSE
[MASSES]
{
;Mass	Exp. Mass	Obs. Mass	% BPI	Int. Abs	Adducted Formula
1532.0000	1555.0000	0.0000	0.00	0.00	
1532.0000	1533.0000	0.0000	0.00	0.00	
}
[RESULTS]
{
;Mass	Found	% BPI	% Purity	Confirmed	Status
1532.0000	0	0.00	0.00	0	
}
[MS]
{
;Mass	% BPI
876.55	3.825
877.71	2.072
890.77	100.000
891.60	60.213
919.77	8.440
930.77	26.722
931.60	15.818
934.82	1.676
970.83	12.345
971.67	9.941
}
}
[SPECTRUM]
{
ProcDesc	Center (Top,4, Ar); Smooth (Mn, 2x0.75); Subtract (1,40.00 ,0.010); Combine (285:291-(254:260+308:314))
State	Diversity fail
Peak ID	11
Peak Ref	6
Time	2.1072
TIC	266383392
BPI	108714272
BPM	970.7700
Continuum	FALSE
Saved	FALSE
[MASSES]
{
;Mass	Exp. Mass	Obs. Mass	% BPI	Int. Abs	Adducted Formula
1532.0000	1555.0000	0.0000	0.00	0.00	
1532.0000	1533.0000	0.0000	0.00	0.00	
}
[RESULTS]
{
;Mass	Found	% BPI	% Purity	Confirmed	Status
1532.0000	0	0.00	0.00	0	
}
[MS]
{
;Mass	% BPI
890.70	13.356
891.67	5.730
892.63	2.522
930.77	43.487
968.78	20.586
970.77	100.000
971.73	50.652
984.73	2.001
1022.54	2.638
1022.93	4.058
}
}
[SPECTRUM]
{
ProcDesc	Center (Top,4, Ar); Smooth (Mn, 2x0.75); Subtract (1,40.00 ,0.010); Combine (294:300-(274:280+318:324))
State	Diversity fail
Peak ID	12
Peak Ref	18
Time	2.1732
TIC	175647072
BPI	69103600
BPM	703.4952
Continuum	FALSE
Saved	FALSE
[MASSES]
{
;Mass	Exp. Mass	Obs. Mass	% BPI	Int. Abs	Adducted Formula
1532.0000	1555.0000	0.0000	0.00	0.00	
1532.0000	1533.0000	0.0000	0.00	0.00	
}
[RESULTS]
{
;Mass	Found	% BPI	% Purity	Confirmed	Status
1532.0000	0	0.00	0.00	0	
}
[MS]
{
;Mass	% BPI
703.50	100.000
704.27	38.763
970.83	22.590
971.67	9.181
1010.84	10.023
1011.74	7.075
1048.91	7.482
1406.13	24.807
1407.03	20.595
1407.80	13.664
}
}
[SPECTRUM]
{
ProcDesc	Center (Top,4, Ar); Smooth (Mn, 2x0.75); Subtract (1,40.00 ,0.010); Combine (309:315-(288:294+328:334))
State	Diversity fail
Peak ID	13
Peak Ref	8
Time	2.2832
TIC	37857592
BPI	15438812
BPM	924.5941
Continuum	FALSE
Saved	FALSE
[MASSES]
{
;Mass	Exp. Mass	Obs. Mass	% BPI	Int. Abs	Adducted Formula
1532.0000	1555.0000	0.0000	0.00	0.00	
1532.0000	1533.0000	0.0000	0.00	0.00	
}
[RESULTS]
{
;Mass	Found	% BPI	% Purity	Confirmed	Status
1532.0000	0	0.00	0.00	0	
}
[MS]
{
;Mass	% BPI
559.57	22.107
624.52	16.093
738.67	8.897
748.06	48.341
914.50	10.811
924.59	100.000
943.50	7.818
1476.81	6.522
1494.82	17.158
1495.53	7.462
}
}
[SPECTRUM]
{
ProcDesc	Center (Top,4, Ar); Smooth (Mn, 2x0.75); Subtract (1,40.00 ,0.010); Combine (318:324-(298:304+340:346))
State	Diversity fail
Peak ID	14
Peak Ref	19
Time	2.3491
TIC	370326720
BPI	169521712
BPM	755.1359
Continuum	FALSE
Saved	FALSE
[MASSES]
{
;Mass	Exp. Mass	Obs. Mass	% BPI	Int. Abs	Adducted Formula
1532.0000	1555.0000	0.0000	0.00	0.00	
1532.0000	1533.0000	0.0000	0.00	0.00	
}
[RESULTS]
{
;Mass	Found	% BPI	% Purity	Confirmed	Status
1532.0000	0	0.00	0.00	0	
}
[MS]
{
;Mass	% BPI
503.81	20.346
519.38	2.087
602.46	9.630
741.24	1.660
755.14	100.000
806.26	1.524
871.60	4.767
1509.04	28.396
1509.75	25.346
1510.58	24.698
}
}
[SPECTRUM]
{
ProcDesc	Center (Top,4, Ar); Smooth (Mn, 2x0.75); Subtract (1,40.00 ,0.010); Combine (320:326-(294:300+341:347))
State	Diversity fail
Peak ID	15
Peak Ref	9
Time	2.3638
TIC	428349088
BPI	200633456
BPM	755.2003
Continuum	FALSE
Saved	FALSE
[MASSES]
{
;Mass	Exp. Mass	Obs. Mass	% BPI	Int. Abs	Adducted Formula
1532.0000	1555.0000	0.0000	0.00	0.00	
1532.0000	1533.0000	0.0000	0.00	0.00	
}
[RESULTS]
{
;Mass	Found	% BPI	% Purity	Confirmed	Status
1532.0000	0	0.00	0.00	0	
}
[MS]
{
;Mass	% BPI
503.81	18.919
536.29	1.779
602.40	9.323
741.24	2.000
755.20	100.000
871.60	2.176
1509.04	28.443
1509.75	26.639
1510.58	20.771
1512.64	3.450
}
}
[SPECTRUM]
{
ProcDesc	Center (Top,4, Ar); Smooth (Mn, 2x0.75); Subtract (1,40.00 ,0.010); Combine (330:336-(302:308+375:381))
State	OK
Peak ID	16
Peak Ref	23
Time	2.4371
TIC	760711936
BPI	290878880
BPM	767.0977
Continuum	FALSE
Saved	FALSE
[MASSES]
{
;Mass	Exp. Mass	Obs. Mass	% BPI	Int. Abs	Adducted Formula
1532.0000	1555.0000	0.0000	0.00	0.00	
1532.0000	1533.0000	1533.8035	72.68	211408576.00	
}
[RESULTS]
{
;Mass	Found	% BPI	% Purity	Confirmed	Status
1532.0000	1	72.68	27.79	1	
}
[MS]
{
;Mass	% BPI
511.79	30.138
548.38	1.212
563.56	6.050
564.52	2.070
614.49	8.368
755.07	1.314
767.10	100.000
785.49	2.110
1533.03	37.582
1533.80	72.679
}
}
[SPECTRUM]
{
ProcDesc	Center (Top,4, Ar); Smooth (Mn, 2x0.75); Subtract (1,40.00 ,0.010); Combine (333:339-(307:313+373:379))
State	OK
Peak ID	17
Peak Ref	10
Time	2.4591
TIC	778106688
BPI	209712560
BPM	767.2906
Continuum	FALSE
Saved	FALSE
[MASSES]
{
;Mass	Exp. Mass	Obs. Mass	% BPI	Int. Abs	Adducted Formula
1532.0000	1555.0000	0.0000	0.00	0.00	
1532.0000	1533.0000	1533.8035	94.18	197502704.00	
}
[RESULTS]
{
;Mass	Found	% BPI	% Purity	Confirmed	Status
1532.0000	0	94.18	25.38	0	
}
[MS]
{
;Mass	% BPI
511.79	54.049
548.19	2.974
614.49	13.410
753.27	1.792
766.90	50.942
767.29	100.000
775.07	2.227
830.44	1.853
1533.03	49.611
1533.80	94.178
}
}
[SPECTRUM]
{
ProcDesc	Center (Top,4, Ar); Smooth (Mn, 2x0.75); Subtract (1,40.00 ,0.010); Combine (361:367-(339:345+379:385))
State	Diversity fail
Peak ID	19
Peak Ref	11
Time	2.6644
TIC	78148184
BPI	19912600
BPM	508.3787
Continuum	FALSE
Saved	FALSE
[MASSES]
{
;Mass	Exp. Mass	Obs. Mass	% BPI	Int. Abs	Adducted Formula
1532.0000	1555.0000	0.0000	0.00	0.00	
1532.0000	1533.0000	0.0000	0.00	0.00	
}
[RESULTS]
{
;Mass	Found	% BPI	% Purity	Confirmed	Status
1532.0000	0	0.00	0.00	0	
}
[MS]
{
;Mass	% BPI
508.38	100.000
509.21	26.399
553.46	14.885
554.36	5.841
591.72	12.073
641.50	8.941
788.58	92.874
1182.17	69.537
1182.56	55.638
1190.40	6.269
}
}
[SPECTRUM]
{
ProcDesc	Center (Top,4, Ar); Smooth (Mn, 2x0.75); Subtract (1,40.00 ,0.010); Combine (365:371-(345:351+392:398))
State	Diversity fail
Peak ID	20
Peak Ref	22
Time	2.6937
TIC	97406376
BPI	71851440
BPM	508.3144
Continuum	FALSE
Saved	FALSE
[MASSES]
{
;Mass	Exp. Mass	Obs. Mass	% BPI	Int. Abs	Adducted Formula
1532.0000	1555.0000	0.0000	0.00	0.00	
1532.0000	1533.0000	0.0000	0.00	0.00	
}
[RESULTS]
{
;Mass	Found	% BPI	% Purity	Confirmed	Status
1532.0000	0	0.00	0.00	0	
}
[MS]
{
;Mass	% BPI
508.31	100.000
515.39	1.022
607.42	0.973
641.57	2.296
788.71	12.324
793.59	1.313
876.36	2.301
1181.27	2.002
1182.17	6.672
1182.75	6.665
}
}
[SPECTRUM]
{
ProcDesc	Center (Top,4, Ar); Smooth (Mn, 2x0.75); Subtract (1,40.00 ,0.010); Combine (376:382-(358:364+403:409))
State	Diversity fail
Peak ID	21
Peak Ref	13
Time	2.7743
TIC	7896184
BPI	4034272
BPM	508.3787
Continuum	FALSE
Saved	FALSE
[MASSES]
{
;Mass	Exp. Mass	Obs. Mass	% BPI	Int. Abs	Adducted Formula
1532.0000	1555.0000	0.0000	0.00	0.00	
1532.0000	1533.0000	0.0000	0.00	0.00	
}
[RESULTS]
{
;Mass	Found	% BPI	% Purity	Confirmed	Status
1532.0000	0	0.00	0.00	0	
}
[MS]
{
;Mass	% BPI
508.38	100.000
563.24	12.944
567.67	9.182
568.19	9.088
590.70	8.298
592.82	8.033
662.21	13.917
689.35	10.021
786.78	10.994
938.49	13.251
}
}
[SPECTRUM]
{
ProcDesc	Center (Top,4, Ar); Smooth (Mn, 2x0.75); Subtract (1,40.00 ,0.010); Combine (393:399-(369:375+433:439))
State	Diversity fail
Peak ID	22
Peak Ref	14
Time	2.8990
TIC	12051600
BPI	4928025
BPM	581.4353
Continuum	FALSE
Saved	FALSE
[MASSES]
{
;Mass	Exp. Mass	Obs. Mass	% BPI	Int. Abs	Adducted Formula
1532.0000	1555.0000	0.0000	0.00	0.00	
1532.0000	1533.0000	0.0000	0.00	0.00	
}
[RESULTS]
{
;Mass	Found	% BPI	% Purity	Confirmed	Status
1532.0000	0	0.00	0.00	0	
}
[MS]
{
;Mass	% BPI
516.80	5.855
556.16	17.183
556.61	21.238
566.64	6.550
581.44	100.000
603.43	28.432
657.19	11.522
848.13	29.656
848.90	18.934
1695.19	5.182
}
}
[CHROMATOGRAM]
{
TraceNumber	1
Description	MS ES+ :TIC
ProcDesc
MaxIntensity	16732041216.00
[TRACE]
{
0.00338	0.030
0.01072	0.079
0.01805	0.020
0.02537	0.041
0.03270	0.027
0.04003	0.053
0.04737	0.023
0.05470	0.077
0.06203	0.018
0.06937	0.014
0.07668	0.037
0.08402	0.046
0.09135	0.043
0.09867	0.018
0.10602	0.050
0.11335	0.033
0.12067	0.053
0.12800	0.049
0.13533	0.028
0.14265	0.046
0.15000	0.068
0.15732	0.066
0.16465	0.008
0.17198	0.036
0.17930	0.035
0.18665	0.024
0.19397	0.048
0.20130	0.036
0.20865	0.033
0.21597	0.040
0.22330	0.029
0.23063	0.019
0.23797	0.064
0.24530	0.013
0.25263	0.020
0.25995	0.030
0.26728	0.097
0.27462	0.002
0.28195	0.044
0.28928	0.055
0.29662	0.076
0.30393	0.007
0.31127	0.055
0.31860	0.029
0.32593	0.024
0.33327	0.012
0.34060	0.036
0.34792	0.019
0.35525	0.034
0.36258	0.013
0.36992	0.039
0.37725	0.020
0.38457	0.012
0.39190	0.059
0.39923	0.033
0.40657	0.029
0.41390	0.043
0.42125	0.069
0.42857	0.015
0.43588	0.021
0.44322	0.040
0.45055	0.079
0.45787	0.067
0.46522	0.045
0.47255	0.068
0.47988	0.035
0.48720	0.031
0.49455	0.038
0.50185	0.026
0.50920	0.039
0.51653	0.030
0.52385	1.771
0.53118	0.608
0.53852	0.169
0.54585	0.172
0.55317	0.099
0.56050	0.066
0.56785	0.090
0.57518	0.080
0.58250	0.090
0.58983	0.056
0.59717	0.057
0.60450	0.063
0.61182	0.063
0.61917	0.077
0.62648	0.108
0.63380	0.129
0.64115	0.140
0.64847	0.099
0.65580	0.128
0.66315	0.200
0.67045	0.221
0.67780	0.157
0.68513	0.299
0.69247	0.180
0.69980	0.271
0.70713	0.262
0.71445	0.139
0.72177	0.287
0.72912	0.175
0.73643	0.213
0.74375	0.259
0.75110	0.177
0.75843	0.131
0.76575	0.125
0.77308	0.115
0.78042	0.065
0.78777	0.126
0.79508	0.057
0.80240	0.076
0.80973	0.056
0.81707	0.031
0.82442	0.204
0.83173	0.082
0.83907	0.110
0.84638	0.064
0.85372	0.066
0.86105	0.058
0.86838	0.075
0.87570	0.082
0.88305	0.050
0.89038	0.083
0.89772	0.098
0.90503	0.100
0.91238	0.059
0.91970	0.097
0.92703	0.207
0.93437	0.133
0.94168	0.127
0.94903	0.138
0.95637	0.238
0.96368	0.072
0.97102	0.087
0.97835	0.174
0.98568	0.230
0.99300	0.154
1.00033	0.163
1.00767	0.089
1.01500	0.160
1.02233	0.155
1.02967	0.217
1.03698	0.149
1.04432	0.181
1.05165	0.241
1.05898	0.318
1.06632	0.188
1.07363	0.221
1.08098	0.280
1.08830	0.317
1.09563	0.269
1.10295	0.419
1.11030	0.218
1.11763	0.280
1.12495	0.393
1.13228	0.316
1.13962	0.300
1.14695	0.401
1.15428	0.374
1.16160	0.329
1.16895	0.453
1.17627	0.354
1.18360	0.526
1.19093	0.658
1.19827	0.644
1.20558	0.806
1.21292	0.525
1.22023	0.798
1.22758	0.539
1.23492	0.530
1.24223	0.655
1.24957	0.466
1.25690	0.390
1.26423	0.511
1.27157	0.417
1.27890	0.500
1.28625	0.442
1.29355	0.478
1.30088	0.553
1.30823	0.530
1.31555	0.390
1.32288	0.523
1.33022	0.504
1.33755	0.676
1.34490	0.821
1.35220	0.763
1.35953	0.521
1.36687	0.641
1.37420	0.651
1.38153	0.905
1.38887	0.756
1.39618	0.644
1.40352	0.665
1.41085	1.331
1.41818	0.954
1.42550	0.974
1.43283	0.850
1.44017	0.729
1.44750	0.759
1.45483	0.898
1.46217	1.040
1.46950	0.744
1.47683	0.748
1.48415	1.175
1.49150	0.992
1.49882	1.052
1.50613	1.198
1.51347	2.626
1.52082	2.188
1.52813	1.861
1.53548	1.842
1.54280	2.042
1.55013	2.692
1.55745	3.462
1.56478	2.849
1.57213	2.750
1.57945	2.798
1.58677	2.715
1.59410	2.413
1.60143	2.764
1.60877	2.934
1.61610	2.894
1.62343	3.057
1.63077	3.555
1.63808	3.442
1.64542	4.592
1.65275	4.238
1.66008	4.432
1.66742	6.608
1.67473	8.843
1.68207	10.131
1.68942	9.531
1.69673	9.035
1.70407	10.999
1.71140	21.099
1.71872	28.904
1.72605	26.797
1.73338	30.324
1.74072	38.973
1.74805	36.725
1.75538	32.289
1.76270	33.251
1.77003	33.832
1.77738	37.372
1.78470	40.048
1.79203	43.509
1.79937	68.084
1.80670	88.342
1.81403	86.669
1.82135	71.859
1.82868	55.932
1.83602	45.665
1.84333	38.463
1.85068	35.064
1.85802	32.030
1.86535	31.987
1.87268	33.480
1.88000	33.636
1.88732	33.308
1.89467	31.220
1.90198	31.840
1.90932	32.794
1.91665	34.807
1.92398	34.101
1.93130	39.210
1.93863	34.743
1.94597	29.162
1.95330	26.101
1.96063	24.617
1.96797	24.072
1.97528	22.644
1.98262	24.993
1.98995	22.372
1.99728	20.477
2.00462	20.721
2.01193	22.026
2.01927	22.017
2.02660	22.569
2.03393	27.106
2.04127	42.011
2.04860	51.825
2.05593	52.772
2.06327	53.536
2.07060	51.913
2.07792	54.864
2.08525	56.839
2.09260	54.523
2.09992	55.406
2.10725	57.036
2.11458	56.067
2.12190	48.497
2.12923	41.167
2.13657	35.405
2.14388	32.377
2.15123	29.089
2.15855	32.609
2.16588	47.632
2.17322	47.928
2.18055	49.586
2.18788	46.683
2.19523	42.445
2.20255	34.824
2.20988	30.829
2.21722	26.786
2.22453	25.387
2.23185	26.047
2.23920	26.349
2.24652	26.633
2.25385	25.178
2.26118	26.266
2.26852	26.795
2.27583	25.670
2.28318	27.671
2.29050	26.886
2.29783	26.108
2.30515	27.751
2.31250	28.297
2.31982	27.391
2.32717	29.749
2.33448	38.342
2.34182	52.567
2.34915	74.957
2.35650	89.504
2.36382	90.510
2.37115	78.537
2.37848	65.042
2.38582	55.571
2.39313	54.367
2.40047	58.310
2.40782	62.606
2.41512	73.336
2.42247	87.886
2.42978	94.864
2.43712	99.166
2.44445	96.110
2.45180	97.739
2.45912	100.000
2.46645	98.489
2.47378	95.086
2.48110	90.913
2.48843	80.430
2.49577	74.381
2.50308	64.313
2.51042	58.807
2.51775	56.744
2.52508	52.905
2.53242	50.142
2.53973	45.861
2.54707	44.648
2.55440	40.326
