[SAMPLE]
{
Sample	1
Well	1:41
FileName	Bode - AlKa - 23 - on-1_20191023
SampleID	Bode - AlKa - 23 - on-1_20191023
SampleDescription	AlKa - 23 - on
Date	23-Oct-2019
Time	10:45:48
JobCode	Bode - AlKa - 23 - on
TaskCode
UserName	Bode - xxx
LabName
Instrument	ACQ-SQD2#LCA574
Conditions
Submitter	Bode - xxx
SampleType	0
Plate	01TL,XY,SD,1: 6,2: 8,3:140.0,4:140.0,5:  0.0,6:  0.0,7:O,8:O,9:1280.0,10:860.0,11:320.0,12:120.0,13:150.0,14: 83.0
QCBatchName	C:\MassLynx\OALogin\BatchDB\SQ01_QC_2018_271.rpt
QCFileName	SQ01_QC_2018_271
QCDate	11/03/2019
QCTime	06:07:36
QCStatus	Fail
QCReason1
QCReason2	Intensity
Method	E:\Masslynx Projects\MoBiAS open access.PRO\MethDB\Low_Mass_PosNeg LC_Fast.olp
Process	C:\MassLynx\OpenLynx.exe
MSTune	Instrument_OA_settings_15Dec2017
MSMethod	FAST_LowMass_From100to500Da_PosNeg
InletMethod	FAST_ACN_H2O_FullRange
PreRunMethod
PostRunMethod
SwitchMethod	Switch_ACN_H2O_FullRange_and_Polar
FractionMethod
AcquisitionProcess
AcquisitionProcessParameters
AcquisitionProcessOptions
InjectionVolume	2.0000
ReportScheme	E:\Masslynx Projects\MoBiAS open access.PRO\MoBiAS_Report_Settings_Standard_Report.ors
SampleReportEnable	1
SampleReportFormat	E:\Masslynx Projects\MoBiAS open access.PRO\MoBiAS_Report_Settings_Standard_Report.ors
AnalysisTime	3.5000
ColumnName	 ACQUITY UPLC® BEH C18 1.7µm
Spare1
Spare2
Spare3
Spare4
Spare5
[COMPOUND]
{
;Mono Mass		Formula
315.0000	
316.0000	
}
[FRACTIONRESULTS]
{
}
[FRACTION]
{
}
[FUNCTION]
{
Function	1
IonMode	ES+ 
Type	MS 
Description	(100:500) 
[SPECTRUM]
{
ProcDesc	Center (Top,4, Ar); Smooth (Mn, 2x0.75); Subtract (1,40.00 ,0.010); Combine (70:76-(51:57+137:143))
State	Diversity fail
Peak ID	1
Peak Ref	1
Time	0.5317
TIC	24289736
BPI	9269297
BPM	159.7661
Continuum	FALSE
Saved	FALSE
[MASSES]
{
;Mass	Exp. Mass	Obs. Mass	% BPI	Int. Abs	Adducted Formula
315.0000	338.0000	0.0000	0.00	0.00	
315.0000	316.0000	0.0000	0.00	0.00	
316.0000	339.0000	0.0000	0.00	0.00	
316.0000	317.0000	0.0000	0.00	0.00	
}
[RESULTS]
{
;Mass	Found	% BPI	% Purity	Confirmed	Status
315.0000	0	0.00	0.00	0	
316.0000	0	0.00	0.00	0	
}
[MS]
{
;Mass	% BPI
100.79	25.227
113.75	24.471
131.68	33.422
141.63	22.377
148.70	8.977
159.77	100.000
161.87	8.932
176.86	11.681
182.88	15.007
308.95	11.951
}
}
[SPECTRUM]
{
ProcDesc	Center (Top,4, Ar); Smooth (Mn, 2x0.75); Subtract (1,40.00 ,0.010); Combine (143:149-(122:128+162:168))
State	Diversity fail
Peak ID	2
Peak Ref	20
Time	1.0673
TIC	102113712
BPI	49110472
BPM	121.8047
Continuum	FALSE
Saved	FALSE
[MASSES]
{
;Mass	Exp. Mass	Obs. Mass	% BPI	Int. Abs	Adducted Formula
315.0000	338.0000	0.0000	0.00	0.00	
315.0000	316.0000	0.0000	0.00	0.00	
316.0000	339.0000	0.0000	0.00	0.00	
316.0000	317.0000	0.0000	0.00	0.00	
}
[RESULTS]
{
;Mass	Found	% BPI	% Purity	Confirmed	Status
315.0000	0	0.00	0.00	0	
316.0000	0	0.00	0.00	0	
}
[MS]
{
;Mass	% BPI
121.80	100.000
122.86	5.549
138.68	4.121
144.64	9.519
180.01	47.039
180.99	3.914
201.72	12.517
223.01	11.916
463.16	8.667
465.12	4.684
}
}
[SPECTRUM]
{
ProcDesc	Center (Top,4, Ar); Smooth (Mn, 2x0.75); Subtract (1,40.00 ,0.010); Combine (147:152-(124:131+170:177))
State	Diversity fail
Peak ID	3
Peak Ref	30
Time	1.0933
TIC	333358752
BPI	102268464
BPM	201.7191
Continuum	FALSE
Saved	FALSE
[MASSES]
{
;Mass	Exp. Mass	Obs. Mass	% BPI	Int. Abs	Adducted Formula
315.0000	338.0000	0.0000	0.00	0.00	
315.0000	316.0000	0.0000	0.00	0.00	
316.0000	339.0000	0.0000	0.00	0.00	
316.0000	317.0000	0.0000	0.00	0.00	
}
[RESULTS]
{
;Mass	Found	% BPI	% Purity	Confirmed	Status
315.0000	0	0.00	0.00	0	
316.0000	0	0.00	0.00	0	
}
[MS]
{
;Mass	% BPI
108.85	4.644
121.80	13.414
179.94	6.617
200.32	57.623
201.72	100.000
203.05	16.681
223.01	76.416
223.99	12.324
463.09	26.544
465.05	11.701
}
}
[SPECTRUM]
{
ProcDesc	Center (Top,4, Ar); Smooth (Mn, 2x0.75); Subtract (1,40.00 ,0.010); Combine (153:159-(133:139+173:179))
State	Diversity fail
Peak ID	4
Peak Ref	4
Time	1.1407
TIC	499320064
BPI	155479600
BPM	201.9993
Continuum	FALSE
Saved	FALSE
[MASSES]
{
;Mass	Exp. Mass	Obs. Mass	% BPI	Int. Abs	Adducted Formula
315.0000	338.0000	0.0000	0.00	0.00	
315.0000	316.0000	0.0000	0.00	0.00	
316.0000	339.0000	0.0000	0.00	0.00	
316.0000	317.0000	0.0000	0.00	0.00	
}
[RESULTS]
{
;Mass	Found	% BPI	% Purity	Confirmed	Status
315.0000	0	0.00	0.00	0	
316.0000	0	0.00	0.00	0	
}
[MS]
{
;Mass	% BPI
147.72	7.387
200.39	62.258
202.00	100.000
203.05	10.567
215.03	19.620
223.01	49.171
227.98	31.334
249.90	11.243
463.09	21.993
464.98	7.574
}
}
[SPECTRUM]
{
ProcDesc	Center (Top,4, Ar); Smooth (Mn, 2x0.75); Subtract (1,40.00 ,0.010); Combine (159:165-(139:145+181:187))
State	Diversity fail
Peak ID	5
Peak Ref	5
Time	1.1847
TIC	620522624
BPI	126839616
BPM	147.7894
Continuum	FALSE
Saved	FALSE
[MASSES]
{
;Mass	Exp. Mass	Obs. Mass	% BPI	Int. Abs	Adducted Formula
315.0000	338.0000	0.0000	0.00	0.00	
315.0000	316.0000	0.0000	0.00	0.00	
316.0000	339.0000	0.0000	0.00	0.00	
316.0000	317.0000	0.0000	0.00	0.00	
}
[RESULTS]
{
;Mass	Found	% BPI	% Purity	Confirmed	Status
315.0000	0	0.00	0.00	0	
316.0000	0	0.00	0.00	0	
}
[MS]
{
;Mass	% BPI
147.79	100.000
148.77	12.963
198.99	56.493
200.74	97.169
202.00	19.026
215.03	52.805
238.98	16.871
256.98	89.065
257.96	25.856
278.90	18.969
}
}
[SPECTRUM]
{
ProcDesc	Center (Top,4, Ar); Smooth (Mn, 2x0.75); Subtract (1,40.00 ,0.010); Combine (167:173-(147:153+188:194))
State	Diversity fail
Peak ID	6
Peak Ref	6
Time	1.2434
TIC	222515248
BPI	67272064
BPM	270.9857
Continuum	FALSE
Saved	FALSE
[MASSES]
{
;Mass	Exp. Mass	Obs. Mass	% BPI	Int. Abs	Adducted Formula
315.0000	338.0000	0.0000	0.00	0.00	
315.0000	316.0000	0.0000	0.00	0.00	
316.0000	339.0000	0.0000	0.00	0.00	
316.0000	317.0000	0.0000	0.00	0.00	
}
[RESULTS]
{
;Mass	Found	% BPI	% Purity	Confirmed	Status
315.0000	0	0.00	0.00	0	
316.0000	0	0.00	0.00	0	
}
[MS]
{
;Mass	% BPI
144.64	19.170
146.67	8.690
147.72	20.457
200.88	64.597
213.00	11.786
215.03	14.235
229.03	56.801
230.01	7.285
238.98	27.750
270.99	100.000
}
}
[SPECTRUM]
{
ProcDesc	Center (Top,4, Ar); Smooth (Mn, 2x0.75); Subtract (1,40.00 ,0.010); Combine (175:181-(154:160+195:201))
State	Diversity fail
Peak ID	7
Peak Ref	7
Time	1.3021
TIC	212385792
BPI	78004056
BPM	238.9790
Continuum	FALSE
Saved	FALSE
[MASSES]
{
;Mass	Exp. Mass	Obs. Mass	% BPI	Int. Abs	Adducted Formula
315.0000	338.0000	0.0000	0.00	0.00	
315.0000	316.0000	0.0000	0.00	0.00	
316.0000	339.0000	0.0000	0.00	0.00	
316.0000	317.0000	0.0000	0.00	0.00	
}
[RESULTS]
{
;Mass	Found	% BPI	% Purity	Confirmed	Status
315.0000	0	0.00	0.00	0	
316.0000	0	0.00	0.00	0	
}
[MS]
{
;Mass	% BPI
144.64	11.091
180.01	9.623
198.99	23.354
201.02	13.907
207.04	25.175
228.96	45.083
238.98	100.000
239.96	16.483
243.04	12.473
397.19	15.086
}
}
[SPECTRUM]
{
ProcDesc	Center (Top,4, Ar); Smooth (Mn, 2x0.75); Subtract (1,40.00 ,0.010); Combine (179:185-(160:166+219:225))
State	Diversity fail
Peak ID	8
Peak Ref	22
Time	1.3314
TIC	184793440
BPI	39412264
BPM	207.0420
Continuum	FALSE
Saved	FALSE
[MASSES]
{
;Mass	Exp. Mass	Obs. Mass	% BPI	Int. Abs	Adducted Formula
315.0000	338.0000	0.0000	0.00	0.00	
315.0000	316.0000	0.0000	0.00	0.00	
316.0000	339.0000	0.0000	0.00	0.00	
316.0000	317.0000	0.0000	0.00	0.00	
}
[RESULTS]
{
;Mass	Found	% BPI	% Purity	Confirmed	Status
315.0000	0	0.00	0.00	0	
316.0000	0	0.00	0.00	0	
}
[MS]
{
;Mass	% BPI
109.83	12.181
129.86	45.053
144.64	13.294
180.01	22.971
207.04	100.000
228.96	73.354
239.05	20.867
242.97	87.169
266.99	70.472
397.19	23.513
}
}
[SPECTRUM]
{
ProcDesc	Center (Top,4, Ar); Smooth (Mn, 2x0.75); Subtract (1,40.00 ,0.010); Combine (193:199-(174:180+214:220))
State	Diversity fail
Peak ID	9
Peak Ref	9
Time	1.4342
TIC	29836836
BPI	7313391
BPM	207.1120
Continuum	FALSE
Saved	FALSE
[MASSES]
{
;Mass	Exp. Mass	Obs. Mass	% BPI	Int. Abs	Adducted Formula
315.0000	338.0000	0.0000	0.00	0.00	
315.0000	316.0000	0.0000	0.00	0.00	
316.0000	339.0000	0.0000	0.00	0.00	
316.0000	317.0000	0.0000	0.00	0.00	
}
[RESULTS]
{
;Mass	Found	% BPI	% Purity	Confirmed	Status
315.0000	0	0.00	0.00	0	
316.0000	0	0.00	0.00	0	
}
[MS]
{
;Mass	% BPI
163.83	20.288
207.11	100.000
213.00	29.192
223.99	38.240
256.91	20.682
304.04	36.532
333.18	70.111
353.21	39.375
414.28	27.123
430.52	26.433
}
}
[SPECTRUM]
{
ProcDesc	Center (Top,4, Ar); Smooth (Mn, 2x0.75); Subtract (1,40.00 ,0.010); Combine (200:206-(180:186+225:231))
State	Diversity fail
Peak ID	10
Peak Ref	10
Time	1.4855
TIC	47237092
BPI	12011664
BPM	196.9566
Continuum	FALSE
Saved	FALSE
[MASSES]
{
;Mass	Exp. Mass	Obs. Mass	% BPI	Int. Abs	Adducted Formula
315.0000	338.0000	0.0000	0.00	0.00	
315.0000	316.0000	0.0000	0.00	0.00	
316.0000	339.0000	0.0000	0.00	0.00	
316.0000	317.0000	0.0000	0.00	0.00	
}
[RESULTS]
{
;Mass	Found	% BPI	% Purity	Confirmed	Status
315.0000	0	0.00	0.00	0	
316.0000	0	0.00	0.00	0	
}
[MS]
{
;Mass	% BPI
187.92	8.094
194.01	44.319
196.96	100.000
215.03	85.175
219.02	14.039
226.02	14.913
260.55	16.516
271.06	47.698
278.97	48.241
320.01	14.265
}
}
[SPECTRUM]
{
ProcDesc	Center (Top,4, Ar); Smooth (Mn, 2x0.75); Subtract (1,40.00 ,0.010); Combine (215:221-(197:203+248:254))
State	Diversity fail
Peak ID	11
Peak Ref	23
Time	1.5956
TIC	382744544
BPI	79099352
BPM	285.9734
Continuum	FALSE
Saved	FALSE
[MASSES]
{
;Mass	Exp. Mass	Obs. Mass	% BPI	Int. Abs	Adducted Formula
315.0000	338.0000	0.0000	0.00	0.00	
315.0000	316.0000	0.0000	0.00	0.00	
316.0000	339.0000	0.0000	0.00	0.00	
316.0000	317.0000	0.0000	0.00	0.00	
}
[RESULTS]
{
;Mass	Found	% BPI	% Purity	Confirmed	Status
315.0000	0	0.00	0.00	0	
316.0000	0	0.00	0.00	0	
}
[MS]
{
;Mass	% BPI
200.95	17.794
266.92	90.949
267.97	18.642
284.71	94.702
285.55	45.516
285.97	100.000
287.02	27.224
307.05	73.316
308.03	9.229
348.16	6.507
}
}
[SPECTRUM]
{
ProcDesc	Center (Top,4, Ar); Smooth (Mn, 2x0.75); Subtract (1,40.00 ,0.010); Combine (234:240-(213:219+255:261))
State	Diversity fail
Peak ID	12
Peak Ref	12
Time	1.7350
TIC	63514120
BPI	46114928
BPM	175.9451
Continuum	FALSE
Saved	FALSE
[MASSES]
{
;Mass	Exp. Mass	Obs. Mass	% BPI	Int. Abs	Adducted Formula
315.0000	338.0000	0.0000	0.00	0.00	
315.0000	316.0000	0.0000	0.00	0.00	
316.0000	339.0000	0.0000	0.00	0.00	
316.0000	317.0000	0.0000	0.00	0.00	
}
[RESULTS]
{
;Mass	Found	% BPI	% Purity	Confirmed	Status
315.0000	0	0.00	0.00	0	
316.0000	0	0.00	0.00	0	
}
[MS]
{
;Mass	% BPI
131.40	1.046
175.95	100.000
177.00	7.535
213.00	4.373
258.38	0.887
284.99	7.767
354.19	3.066
359.23	4.417
378.14	1.214
430.45	7.425
}
}
[SPECTRUM]
{
ProcDesc	Center (Top,4, Ar); Smooth (Mn, 2x0.75); Subtract (1,40.00 ,0.010); Combine (277:283-(256:262+297:303))
State	Diversity fail
Peak ID	13
Peak Ref	13
Time	2.0505
TIC	33656220
BPI	18391952
BPM	280.0904
Continuum	FALSE
Saved	FALSE
[MASSES]
{
;Mass	Exp. Mass	Obs. Mass	% BPI	Int. Abs	Adducted Formula
315.0000	338.0000	0.0000	0.00	0.00	
315.0000	316.0000	0.0000	0.00	0.00	
316.0000	339.0000	0.0000	0.00	0.00	
316.0000	317.0000	0.0000	0.00	0.00	
}
[RESULTS]
{
;Mass	Found	% BPI	% Purity	Confirmed	Status
315.0000	0	0.00	0.00	0	
316.0000	0	0.00	0.00	0	
}
[MS]
{
;Mass	% BPI
123.77	4.913
130.21	14.350
242.06	7.729
250.89	6.002
254.18	6.871
263.14	19.485
280.09	100.000
306.21	7.132
385.28	5.579
430.38	10.933
}
}
[SPECTRUM]
{
ProcDesc	Center (Top,4, Ar); Smooth (Mn, 2x0.75); Subtract (1,40.00 ,0.010); Combine (298:304-(263:269+336:342))
State	Diversity fail
Peak ID	14
Peak Ref	14
Time	2.2046
TIC	209238336
BPI	131782136
BPM	282.1215
Continuum	FALSE
Saved	FALSE
[MASSES]
{
;Mass	Exp. Mass	Obs. Mass	% BPI	Int. Abs	Adducted Formula
315.0000	338.0000	0.0000	0.00	0.00	
315.0000	316.0000	0.0000	0.00	0.00	
316.0000	339.0000	0.0000	0.00	0.00	
316.0000	317.0000	0.0000	0.00	0.00	
}
[RESULTS]
{
;Mass	Found	% BPI	% Purity	Confirmed	Status
315.0000	0	0.00	0.00	0	
316.0000	0	0.00	0.00	0	
}
[MS]
{
;Mass	% BPI
100.86	1.251
107.80	1.594
109.90	6.737
123.98	1.595
130.49	7.150
256.21	5.243
265.10	4.357
282.12	100.000
283.10	27.245
430.38	3.604
}
}
[SPECTRUM]
{
ProcDesc	Center (Top,4, Ar); Smooth (Mn, 2x0.75); Subtract (1,40.00 ,0.010); Combine (329:335-(302:308+349:355))
State	Diversity fail
Peak ID	15
Peak Ref	15
Time	2.4320
TIC	14495888
BPI	7047949
BPM	284.3626
Continuum	FALSE
Saved	FALSE
[MASSES]
{
;Mass	Exp. Mass	Obs. Mass	% BPI	Int. Abs	Adducted Formula
315.0000	338.0000	0.0000	0.00	0.00	
315.0000	316.0000	0.0000	0.00	0.00	
316.0000	339.0000	0.0000	0.00	0.00	
316.0000	317.0000	0.0000	0.00	0.00	
}
[RESULTS]
{
;Mass	Found	% BPI	% Purity	Confirmed	Status
315.0000	0	0.00	0.00	0	
316.0000	0	0.00	0.00	0	
}
[MS]
{
;Mass	% BPI
108.15	3.053
112.91	3.251
123.63	28.443
129.58	4.680
144.85	13.352
146.60	4.277
198.71	2.825
284.36	100.000
310.28	26.968
325.26	18.826
}
}
[SPECTRUM]
{
ProcDesc	Center (Top,4, Ar); Smooth (Mn, 2x0.75); Subtract (1,40.00 ,0.010); Combine (358:364-(315:321+398:404))
State	Diversity fail
Peak ID	16
Peak Ref	16
Time	2.6448
TIC	93556224
BPI	20416608
BPM	393.3366
Continuum	FALSE
Saved	FALSE
[MASSES]
{
;Mass	Exp. Mass	Obs. Mass	% BPI	Int. Abs	Adducted Formula
315.0000	338.0000	0.0000	0.00	0.00	
315.0000	316.0000	0.0000	0.00	0.00	
316.0000	339.0000	0.0000	0.00	0.00	
316.0000	317.0000	0.0000	0.00	0.00	
}
[RESULTS]
{
;Mass	Found	% BPI	% Purity	Confirmed	Status
315.0000	0	0.00	0.00	0	
316.0000	0	0.00	0.00	0	
}
[MS]
{
;Mass	% BPI
100.86	29.274
123.84	74.906
129.86	70.437
144.57	34.915
200.95	30.556
371.35	35.933
391.31	22.420
393.34	100.000
413.23	37.297
454.27	22.497
}
}
[SPECTRUM]
{
ProcDesc	Center (Top,4, Ar); Smooth (Mn, 2x0.75); Subtract (1,40.00 ,0.010); Combine (382:388-(364:370+405:411))
State	Diversity fail
Peak ID	17
Peak Ref	17
Time	2.8209
TIC	40345716
BPI	12146611
BPM	129.9293
Continuum	FALSE
Saved	FALSE
[MASSES]
{
;Mass	Exp. Mass	Obs. Mass	% BPI	Int. Abs	Adducted Formula
315.0000	338.0000	0.0000	0.00	0.00	
315.0000	316.0000	0.0000	0.00	0.00	
316.0000	339.0000	0.0000	0.00	0.00	
316.0000	317.0000	0.0000	0.00	0.00	
}
[RESULTS]
{
;Mass	Found	% BPI	% Purity	Confirmed	Status
315.0000	0	0.00	0.00	0	
316.0000	0	0.00	0.00	0	
}
[MS]
{
;Mass	% BPI
117.74	8.937
123.70	32.688
129.93	100.000
144.64	31.764
146.67	17.135
256.77	26.602
306.14	26.392
430.38	63.845
431.43	15.180
441.31	9.612
}
}
[SPECTRUM]
{
ProcDesc	Center (Top,4, Ar); Smooth (Mn, 2x0.75); Subtract (1,40.00 ,0.010); Combine (392:398-(371:377+420:426))
State	Diversity fail
Peak ID	18
Peak Ref	18
Time	2.8943
TIC	79183496
BPI	18732070
BPM	430.3843
Continuum	FALSE
Saved	FALSE
[MASSES]
{
;Mass	Exp. Mass	Obs. Mass	% BPI	Int. Abs	Adducted Formula
315.0000	338.0000	0.0000	0.00	0.00	
315.0000	316.0000	0.0000	0.00	0.00	
316.0000	339.0000	0.0000	0.00	0.00	
316.0000	317.0000	0.0000	0.00	0.00	
}
[RESULTS]
{
;Mass	Found	% BPI	% Purity	Confirmed	Status
315.0000	0	0.00	0.00	0	
316.0000	0	0.00	0.00	0	
}
[MS]
{
;Mass	% BPI
131.33	80.745
132.17	37.588
139.66	17.964
140.65	12.178
151.92	84.245
152.62	33.237
256.70	22.941
306.14	12.866
430.38	100.000
431.43	20.953
}
}
[SPECTRUM]
{
ProcDesc	Center (Top,4, Ar); Smooth (Mn, 2x0.75); Subtract (1,40.00 ,0.010); Combine (411:417-(390:396+441:447))
State	Diversity fail
Peak ID	19
Peak Ref	25
Time	3.0337
TIC	214035536
BPI	90657528
BPM	122.3650
Continuum	FALSE
Saved	FALSE
[MASSES]
{
;Mass	Exp. Mass	Obs. Mass	% BPI	Int. Abs	Adducted Formula
315.0000	338.0000	0.0000	0.00	0.00	
315.0000	316.0000	0.0000	0.00	0.00	
316.0000	339.0000	0.0000	0.00	0.00	
316.0000	317.0000	0.0000	0.00	0.00	
}
[RESULTS]
{
;Mass	Found	% BPI	% Purity	Confirmed	Status
315.0000	0	0.00	0.00	0	
316.0000	0	0.00	0.00	0	
}
[MS]
{
;Mass	% BPI
101.84	8.629
109.83	4.705
110.81	4.772
113.89	4.211
122.36	100.000
125.73	24.669
130.42	4.999
142.82	71.551
166.84	11.041
201.09	1.515
}
}
[CHROMATOGRAM]
{
TraceNumber	1
Description	MS ES+ :TIC
ProcDesc
MaxIntensity	15862257664.00
[TRACE]
{
0.50232	0.000
0.50965	0.000
0.51700	0.000
0.52433	10.720
0.53167	25.399
0.53900	10.395
0.54633	8.101
0.55368	8.504
0.56103	9.315
0.56835	9.805
0.57568	10.131
0.58303	10.229
0.59037	9.754
0.59772	10.014
0.60505	9.602
0.61238	9.798
0.61972	9.419
0.62705	9.268
0.63438	8.266
0.64173	8.595
0.64907	8.163
0.65640	7.462
0.66375	7.375
0.67107	7.859
0.67843	7.682
0.68575	7.434
0.69308	7.087
0.70043	6.321
0.70777	6.818
0.71510	7.013
0.72245	6.831
0.72977	6.692
0.73712	6.934
0.74445	5.883
0.75178	6.158
0.75915	5.945
0.76647	6.088
0.77380	6.290
0.78113	5.625
0.78847	5.749
0.79580	5.788
0.80313	5.405
0.81048	5.429
0.81783	5.424
0.82517	5.170
0.83250	5.134
0.83983	5.340
0.84718	4.465
0.85450	4.896
0.86185	4.614
0.86920	4.632
0.87652	4.824
0.88385	4.855
0.89122	4.581
0.89853	4.547
0.90588	4.584
0.91322	4.649
0.92053	5.305
0.92788	5.475
0.93522	5.420
0.94257	5.559
0.94990	5.397
0.95725	5.526
0.96457	6.667
0.97190	7.926
0.97923	7.860
0.98658	7.508
0.99392	7.720
1.00125	7.891
1.00858	9.273
1.01592	10.349
1.02327	11.634
1.03060	11.916
1.03795	11.347
1.04528	13.083
1.05263	16.738
1.05995	22.662
1.06730	25.941
1.07463	22.301
1.08197	21.247
1.08930	52.107
1.09665	65.104
1.10398	69.621
1.11130	68.029
1.11865	66.063
1.12598	67.540
1.13332	70.564
1.14065	73.021
1.14800	72.556
1.15535	69.877
1.16267	59.121
1.17000	67.121
1.17733	94.671
1.18468	100.000
1.19203	94.489
1.19937	82.606
1.20670	68.620
1.21405	52.324
1.22138	47.174
1.22872	47.035
1.23605	53.597
1.24337	59.723
1.25072	57.247
1.25805	48.305
1.26538	44.605
1.27275	45.238
1.28007	47.670
1.28742	59.421
1.29475	63.193
1.30207	65.220
1.30943	62.696
1.31677	54.891
1.32412	49.718
1.33143	56.945
1.33877	63.053
1.34610	70.926
1.35345	66.561
1.36078	50.698
1.36812	42.499
1.37547	38.683
1.38278	36.828
1.39013	35.388
1.39747	35.429
1.40482	35.236
1.41215	32.391
1.41948	31.664
1.42685	31.749
1.43417	34.257
1.44152	34.210
1.44883	32.049
1.45618	28.414
1.46350	26.735
1.47085	27.814
1.47818	33.495
1.48553	35.194
1.49287	31.924
1.50020	30.772
1.50753	28.681
1.51488	27.383
1.52222	26.542
1.52953	27.474
1.53688	26.701
1.54423	25.420
1.55158	25.850
1.55892	27.770
1.56625	28.467
1.57358	28.952
1.58092	27.135
1.58825	28.227
1.59558	56.347
1.60293	82.137
1.61027	93.758
1.61760	91.963
1.62493	81.984
1.63227	67.886
1.63962	56.148
1.64693	48.023
1.65428	43.565
1.66163	40.803
1.66897	38.719
1.67630	35.293
1.68363	32.839
1.69097	31.415
1.69830	30.172
1.70565	30.112
1.71298	30.256
1.72032	31.050
1.72765	37.488
1.73498	39.252
1.74233	36.265
1.74967	33.505
1.75702	31.172
1.76435	31.133
1.77168	32.037
1.77902	33.383
1.78637	35.199
1.79368	34.573
1.80102	33.114
1.80837	31.670
1.81572	31.245
1.82305	29.924
1.83038	30.924
1.83773	31.105
1.84507	30.927
1.85240	32.177
1.85973	32.359
1.86707	32.502
1.87440	32.156
1.88173	31.612
1.88908	32.486
1.89643	32.614
1.90375	33.430
1.91110	33.882
1.91842	33.343
1.92575	33.509
1.93310	32.268
1.94047	33.662
1.94777	33.164
1.95512	31.974
1.96245	34.127
1.96980	34.007
1.97712	34.428
1.98445	33.884
1.99178	34.663
1.99913	36.327
2.00648	37.007
2.01382	36.184
2.02113	34.455
2.02847	34.648
2.03582	36.404
2.04317	40.312
2.05050	43.218
2.05783	41.947
2.06517	41.480
2.07250	39.718
2.07983	40.669
2.08718	40.354
2.09453	41.349
2.10185	42.188
2.10920	42.504
2.11653	41.199
2.12388	41.466
2.13122	42.505
2.13855	44.035
2.14588	44.220
2.15323	44.229
2.16057	45.597
2.16790	45.886
2.17523	47.976
2.18257	47.928
2.18990	53.530
